dt: 0.006 CellNx: 4 b: 5.26 noParticles: 2048
Kinetic energy     Potential energy   Total energy   Temperature         Pressure   Average displacement    Radial distribution
2554.59            -17438               -14883.4         0.835143         0.737484         9.19214e-05
2429.53            -17336.4               -14906.9         0.831572         1.02315         0.000361051
2253.62            -17171.4               -14917.8         0.790864         1.44594         0.000790479
2038.24            -16950.4               -14912.1         0.7336         2.00422         0.00135578
1797.97            -16685.4               -14887.5         0.66349         2.66509         0.00202651
1551.82            -16395.2               -14843.4         0.585277         3.38049         0.00276831
1323.41            -16105.2               -14781.8         0.50515         4.08782         0.0035457
1138.69            -15842.8               -14704.1         0.430797         4.72255         0.00432595
1021.52            -15630.7               -14609.2         0.370666         5.23408         0.00508279
988.372            -15484.5               -14496.1         0.332525         5.59028         0.00579879
1041.59            -15412.3               -14370.7         0.321736         5.77684         0.00646548
1163.74            -15408.3               -14244.5         0.339059         5.81002         0.00708187
1322.07            -15449.4               -14127.3         0.378823         5.74316         0.00765311
1481.66            -15507.3               -14025.6         0.430361         5.63961         0.00818902
1615.67            -15556.9               -13941.2         0.482311         5.55455         0.00870159
1708.91            -15580.7               -13871.8         0.525936         5.52702         0.00920152
1757.2            -15569.8               -13812.7         0.556287         5.57775         0.00969536
1765.41            -15525.4               -13760         0.572004         5.70446         0.0101841
1744.7            -15455.3               -13710.6         0.574677         5.88946         0.0106634
1709.03            -15369               -13660         0.567938         6.11171         0.0111251
1672.57            -15278.4               -13605.8         0.556324         6.3442         0.0115588
1647.94            -15195.9               -13547.9         0.544456         6.55834         0.0119537
1644.41            -15127.9               -13483.5         0.53644         6.73926         0.0123005
1667.13            -15084.3               -13417.2         0.535289         6.8636         0.0125926
1716.93            -15068.5               -13351.5         0.542684         6.92303         0.0128269
1790.03            -15079.1               -13289         0.558897         6.92044         0.013005
1878.19            -15114.4               -13236.2         0.582693         6.85887         0.0131321
1971.27            -15164.5               -13193.2         0.61139         6.76072         0.0132173
2059.98            -15218.1               -13158.1         0.641691         6.65161         0.0132711
2136.82            -15269               -13132.2         0.670566         6.54561         0.0133045
2170.69            -15309.7               -13139         0.695579         6.46083         0.0133273
2188.69            -15338.3               -13149.6         0.706604         6.39213         0.0133462
2191.26            -15352.8               -13161.5         0.712463         6.35498         0.0133644
2180.27            -15354.7               -13174.5         0.7133         6.34647         0.0133831
2159.33            -15346.6               -13187.3         0.709723         6.36066         0.0134012
2133.27            -15332.9               -13199.6         0.702907         6.38748         0.0134158
2106.96            -15316.3               -13209.3         0.694425         6.42125         0.0134233
2084.75            -15300.1               -13215.4         0.68586         6.45412         0.0134199
2070.35            -15288.4               -13218         0.67863         6.47692         0.0134021
2066.83            -15287.6               -13220.8         0.673943         6.47474         0.0133674
2074.77            -15298.6               -13223.8         0.672796         6.44597         0.0133153
2092            -15319.3               -13227.3         0.675382         6.39532         0.0132471
2114.97            -15346.9               -13231.9         0.680989         6.32931         0.0131657
2139.57            -15376.8               -13237.3         0.688468         6.25809         0.0130754
2162.15            -15404.9               -13242.7         0.696476         6.19081         0.0129804
2180.13            -15431.2               -13251.1         0.703826         6.12672         0.0128849
2192.1            -15456.4               -13264.3         0.709679         6.06427         0.0127922
2197.5            -15477.1               -13279.6         0.713574         6.0114         0.0127051
2197.14            -15491.4               -13294.2         0.715332         5.97316         0.0126253
2192.6            -15500.8               -13308.2         0.715214         5.94644         0.0125538
2184.7            -15505.6               -13320.9         0.713737         5.93103         0.0124907
2173.44            -15505.7               -13332.2         0.711164         5.92791         0.0124357
2158.77            -15502.1               -13343.3         0.707499         5.93371         0.0123881
2141.1            -15495.8               -13354.7         0.702725         5.94587         0.0123465
2121.78            -15486.6               -13364.8         0.696972         5.96497         0.0123089
2103.15            -15475.2               -13372.1         0.690683         5.98858         0.012273
2087.83            -15464.5               -13376.6         0.684618         6.01044         0.0122362
2077.77            -15459.3               -13381.6         0.679633         6.01902         0.0121963
2072.99            -15457.8               -13384.8         0.676358         6.01944         0.0121519
2072.28            -15458.8               -13386.5         0.674801         6.01432         0.0121024
2048.67            -15461.5               -13412.8         0.674571         6.00526         0.0120478
2029.64            -15467.3               -13437.6         0.666886         5.97965         0.011988
2014.37            -15475.6               -13461.3         0.66069         5.94848         0.0119218
2002.31            -15488.2               -13485.9         0.65572         5.90823         0.0118488
1993.02            -15502.2               -13509.2         0.651792         5.86517         0.011769
1985.87            -15516.3               -13530.5         0.648769         5.8232         0.0116828
1980.07            -15527.5               -13547.5         0.646442         5.78943         0.0115908
1974.79            -15538.1               -13563.3         0.644552         5.75834         0.0114936
1969.23            -15549.9               -13580.7         0.642837         5.72535         0.0113917
1963.03            -15559.8               -13596.8         0.641027         5.69748         0.0112859
1956.78            -15569.7               -13612.9         0.639007         5.66979         0.0111764
1951.67            -15580.8               -13629.1         0.636972         5.63919         0.0110635
1948.89            -15593.3               -13644.4         0.635309         5.6055         0.0109477
1949.04            -15608.6               -13659.6         0.634404         5.56542         0.0108296
1951.7            -15626               -13674.3         0.634453         5.52093         0.0107105
1955.57            -15645.7               -13690.1         0.63532         5.47103         0.0105922
1958.95            -15665.2               -13706.3         0.636579         5.42126         0.0104765
1960.67            -15684.1               -13723.5         0.637681         5.37249         0.0103654
1960.14            -15701.1               -13740.9         0.638238         5.32772         0.0102605
1957.21            -15715.7               -13758.5         0.638067         5.28774         0.0101629
1951.87            -15727.2               -13775.3         0.637114         5.2546         0.0100735
1944.28            -15735.7               -13791.4         0.635375         5.22825         0.00999251
1934.89            -15741.5               -13806.6         0.632904         5.20776         0.0099198
1924.36            -15744.2               -13819.8         0.629848         5.19454         0.00985478
1913.58            -15745.1               -13831.6         0.626421         5.18531         0.00979655
1903.64            -15745.5               -13841.9         0.622912         5.17795         0.00974406
1895.27            -15747.8               -13852.5         0.619674         5.16684         0.00969635
1888.59            -15751.5               -13862.9         0.616949         5.15328         0.00965278
1883.32            -15755.7               -13872.3         0.614776         5.13928         0.00961311
1878.88            -15760.3               -13881.4         0.613059         5.12508         0.00957727
1849.12            -15765.9               -13916.8         0.611615         5.10869         0.00954535
1822.49            -15772               -13949.5         0.601928         5.08223         0.00951687
1799.28            -15778.9               -13979.6         0.59326         5.05479         0.00949036
1779.33            -15785               -14005.6         0.585702         5.03017         0.00946472
1762.38            -15790.7               -14028.3         0.57921         5.00719         0.00943903
1747.89            -15797.6               -14049.7         0.57369         4.982         0.00941263
1735.02            -15805.1               -14070.1         0.568973         4.95638         0.00938512
1723.23            -15811.4               -14088.1         0.564785         4.93363         0.00935625
1712.4            -15818.9               -14106.5         0.560947         4.90779         0.00932571
1702.6            -15826.4               -14123.8         0.557421         4.88208         0.00929328
1694.44            -15835               -14140.6         0.554233         4.85413         0.00925876
1688.54            -15845.3               -14156.7         0.551575         4.82234         0.00922212
1684.98            -15857.6               -14172.6         0.549654         4.78639         0.00918363
1682.87            -15870.1               -14187.3         0.548495         4.75094         0.009144
1680.79            -15881.9               -14201.1         0.54781         4.71828         0.00910414
1677.27            -15891.8               -14214.5         0.547132         4.69104         0.00906492
1671.2            -15898.9               -14227.7         0.545988         4.67077         0.00902695
1662.11            -15902.9               -14240.8         0.54401         4.65805         0.00899037
1650.64            -15904               -14253.3         0.541052         4.65201         0.00895478
1638.45            -15903.5               -14265.1         0.537318         4.64947         0.00891923
1627.67            -15902.5               -14274.9         0.533351         4.64807         0.00888256
1620.24            -15904.1               -14283.8         0.529842         4.64105         0.00884368
1617.21            -15908.7               -14291.5         0.527423         4.62729         0.00880203
1618.32            -15917.7               -14299.4         0.526434         4.60368         0.00875775
1622.08            -15929.6               -14307.5         0.526796         4.57426         0.00871182
1626.4            -15942               -14315.6         0.52802         4.54384         0.00866569
1629.09            -15953.4               -14324.3         0.529426         4.51612         0.008621
1628.41            -15961.4               -14333         0.530302         4.49558         0.00857908
1623.68            -15965.6               -14342         0.530082         4.48342         0.00854067
1615.52            -15965.9               -14350.3         0.528542         4.47956         0.00850572
1580.03            -15963.7               -14383.6         0.525887         4.48047         0.00847345
1547.97            -15961.1               -14413.1         0.514334         4.4725         0.00844202
1521.56            -15961.7               -14440.1         0.503898         4.45776         0.00840856
1501.73            -15966.2               -14464.4         0.4953         4.43492         0.00837095
1488.07            -15974.6               -14486.5         0.488846         4.40405         0.00832797
1479.3            -15986.6               -14507.3         0.484397         4.36602         0.0082793
1473.89            -16001.1               -14527.3         0.481544         4.32294         0.00822528
1470.24            -16017.4               -14547.2         0.479781         4.27673         0.00816674
1467.09            -16033.5               -14566.4         0.478593         4.23135         0.00810471
1463.81            -16048.5               -14584.7         0.47757         4.18882         0.00804022
1460.24            -16062.6               -14602.4         0.476499         4.14913         0.00797415
1456.52            -16077               -14620.5         0.475339         4.10914         0.0079073
1452.54            -16091.1               -14638.5         0.474126         4.0706         0.00784046
1448.16            -16104.1               -14656         0.472832         4.03494         0.00777445
1443.33            -16116.1               -14672.8         0.471407         4.0024         0.00770997
1438.04            -16126.7               -14688.6         0.469834         3.97338         0.00764766
1432.26            -16136.2               -14703.9         0.468111         3.94711         0.00758804
1425.98            -16145               -14719         0.46623         3.9226         0.00753151
1419.2            -16152.7               -14733.5         0.464186         3.90055         0.00747837
1411.95            -16159.1               -14747.2         0.461979         3.88165         0.0074288
1404.27            -16164.2               -14760         0.459618         3.86548         0.0073828
1396.2            -16168.5               -14772.3         0.45712         3.85124         0.00734025
1387.78            -16171.3               -14783.5         0.454494         3.84025         0.00730088
1379.17            -16173.1               -14794         0.45175         3.83139         0.00726425
1370.75            -16174.3               -14803.6         0.448948         3.82398         0.00722981
1363.09            -16175.5               -14812.5         0.446209         3.81662         0.00719693
1356.79            -16177.7               -14820.9         0.443713         3.80729         0.007165
1352.17            -16180.9               -14828.7         0.441664         3.79576         0.00713363
1349.02            -16184.7               -14835.7         0.44016         3.78327         0.00710268
1346.72            -16188.9               -14842.2         0.439133         3.77072         0.00707222
1318.88            -16192.7               -14873.8         0.438386         3.75933         0.00704243
1293.63            -16196.8               -14903.2         0.429321         3.7382         0.00701286
1271.27            -16201.5               -14930.2         0.421105         3.71661         0.00698194
1252.32            -16207.4               -14955.1         0.413826         3.69246         0.00694832
1237.2            -16214.9               -14977.7         0.407656         3.66493         0.00691099
1226.03            -16224.9               -14998.8         0.402736         3.63196         0.00686939
1218.37            -16237.4               -15019.1         0.399097         3.59348         0.00682346
1213.43            -16252               -15038.6         0.396606         3.55086         0.00677364
1210.2            -16267.8               -15057.6         0.394998         3.50586         0.00672074
1207.69            -16284               -15076.3         0.393945         3.46036         0.00666578
1205.09            -16299.8               -15094.7         0.39313         3.41611         0.00660983
1201.77            -16314.7               -15113         0.392284         3.37447         0.00655391
1197.28            -16328.2               -15130.9         0.391201         3.33675         0.00649887
1191.37            -16339.7               -15148.3         0.389741         3.30402         0.00644536
1183.97            -16349               -15165.1         0.387817         3.27658         0.00639375
1175.29            -16356.2               -15180.9         0.385408         3.25436         0.00634412
1165.84            -16361.7               -15195.9         0.382582         3.2362         0.00629629
1156.42            -16366.3               -15209.9         0.379506         3.22021         0.00624985
1147.93            -16370.9               -15222.9         0.376438         3.20424         0.0062043
1141.16            -16376.4               -15235.3         0.373675         3.18597         0.00615925
1136.52            -16383.6               -15247.1         0.371472         3.1642         0.00611452
1133.88            -16392.1               -15258.3         0.369961         3.13944         0.00607028
1132.7            -16401.6               -15268.9         0.369101         3.11251         0.00602697
1132.17            -16412               -15279.8         0.368716         3.08385         0.0059853
1131.47            -16422.2               -15290.7         0.368545         3.05566         0.00594607
1130.05            -16431.5               -15301.4         0.368318         3.02949         0.00591001
1127.7            -16439.6               -15311.9         0.367854         3.00592         0.00587772
1124.53            -16446.6               -15322         0.367091         2.98489         0.00584962
1120.76            -16452.8               -15332         0.366057         2.966         0.00582596
1116.66            -16458.2               -15341.6         0.364832         2.94906         0.00580686
1086.57            -16462.9               -15376.3         0.363495         2.93414         0.00579241
1059.18            -16467.6               -15408.4         0.353702         2.91084         0.00578188
1034.69            -16472.1               -15437.4         0.344784         2.88866         0.00577357
1013.01            -16477.2               -15464.1         0.336813         2.86655         0.00576605
993.807            -16482.6               -15488.8         0.329756         2.8445         0.00575817
976.629            -16487.8               -15511.1         0.323505         2.82353         0.00574902
961.055            -16493.1               -15532.1         0.317913         2.80309         0.00573783
946.833            -16498.3               -15551.5         0.312843         2.78358         0.00572392
933.96            -16503.2               -15569.2         0.308214         2.7648         0.00570663
922.656            -16508.3               -15585.7         0.304023         2.74561         0.00568541
913.248            -16514.3               -15601         0.300344         2.72477         0.00565977
906.012            -16521.5               -15615.5         0.297281         2.70118         0.00562944
901.025            -16530.5               -15629.5         0.294926         2.67397         0.0055944
898.1            -16540.9               -15642.8         0.293302         2.64354         0.00555494
896.795            -16552.5               -15655.7         0.29235         2.61039         0.00551165
896.502            -16565.1               -15668.6         0.291925         2.57523         0.00546534
896.572            -16578.1               -15681.6         0.29183         2.53944         0.00541699
896.433            -16590.8               -15694.4         0.291853         2.50442         0.0053676
895.687            -16603               -15707.3         0.291808         2.47083         0.00531813
894.118            -16614.2               -15720.1         0.291565         2.43947         0.00526942
891.655            -16624.4               -15732.7         0.291054         2.41079         0.00522215
888.304            -16633.6               -15745.3         0.290252         2.38475         0.00517684
884.13            -16641.6               -15757.4         0.289161         2.36178         0.00513385
879.258            -16648.4               -15769.1         0.287803         2.34164         0.0050934
873.876            -16654.1               -15780.3         0.286217         2.32415         0.00505557
868.22            -16658.9               -15790.7         0.284465         2.30894         0.00502032
862.532            -16663               -15800.5         0.282624         2.29535         0.00498753
857.018            -16666.7               -15809.6         0.280772         2.28291         0.00495706
851.826            -16670.2               -15818.4         0.278977         2.27102         0.00492877
847.042            -16673.7               -15826.7         0.277287         2.25948         0.00490254
816.926            -16677.3               -15860.3         0.27573         2.24815         0.00487825
790.076            -16681.2               -15891.1         0.265927         2.22707         0.00485532
766.728            -16685.8               -15919.1         0.257186         2.2049         0.00483201
746.879            -16691.7               -15944.8         0.249586         2.18055         0.00480695
730.311            -16698.9               -15968.6         0.243125         2.15376         0.00477917
716.636            -16707.1               -15990.5         0.237731         2.12491         0.004748
705.37            -16716.6               -16011.3         0.23328         2.0938         0.00471313
696.03            -16726.7               -16030.7         0.229613         2.06148         0.00467445
688.209            -16737.6               -16049.4         0.226572         2.028         0.00463208
681.59            -16748.8               -16067.2         0.224026         1.99413         0.00458625
675.947            -16760.4               -16084.5         0.221872         1.95972         0.0045373
671.109            -16772.3               -16101.2         0.220035         1.92506         0.00448565
666.925            -16784.2               -16117.3         0.21846         1.89055         0.00443182
663.26            -16796.4               -16133.1         0.217098         1.85599         0.00437636
659.983            -16808.4               -16148.4         0.215905         1.82188         0.00431989
656.968            -16820.3               -16163.4         0.214838         1.78814         0.00426305
654.084            -16832.4               -16178.3         0.213857         1.75479         0.00420648
651.192            -16843.8               -16192.6         0.212918         1.72261         0.00415082
648.163            -16854.9               -16206.7         0.211977         1.69159         0.00409669
644.888            -16865.5               -16220.7         0.21099         1.66177         0.00404464
641.282            -16875.3               -16234.1         0.209924         1.63387         0.00399515
637.3            -16884.5               -16247.2         0.208751         1.60771         0.00394863
632.94            -16892.9               -16260         0.207454         1.58339         0.00390537
628.236            -16900.3               -16272.1         0.206035         1.56123         0.0038656
623.243            -16907.1               -16283.8         0.204504         1.5409         0.00382942
618.036            -16912.9               -16294.9         0.202879         1.52254         0.0037969
612.71            -16918.3               -16305.6         0.201183         1.50559         0.00376798
607.374            -16923               -16315.6         0.19945         1.49027         0.0037426
602.129            -16927.4               -16325.3         0.197713         1.47601         0.00372062
597.057            -16931.4               -16334.3         0.196006         1.46281         0.00370191
566.404            -16934.9               -16368.5         0.194354         1.45074         0.00368632
538.861            -16938.6               -16399.7         0.184376         1.42941         0.00367312
514.728            -16942.9               -16428.2         0.17541         1.40736         0.00366045
494.094            -16948.3               -16454.2         0.167555         1.38349         0.00364685
476.827            -16955.2               -16478.4         0.160838         1.35693         0.00363123
462.608            -16963.9               -16501.3         0.155217         1.32733         0.00361289
450.991            -16973.5               -16522.5         0.150589         1.29568         0.00359146
441.463            -16983.9               -16542.4         0.146807         1.26247         0.00356688
433.515            -16995.1               -16561.6         0.143705         1.2279         0.00353928
426.703            -17006.5               -16579.8         0.141118         1.19315         0.00350895
420.669            -17017.9               -16597.3         0.138901         1.15851         0.00347627
415.144            -17029.3               -16614.2         0.136936         1.12444         0.00344167
409.949            -17040.4               -16630.4         0.135138         1.09132         0.00340557
404.97            -17051.2               -16646.2         0.133447         1.05922         0.0033684
400.13            -17061.7               -16661.6         0.131826         1.02826         0.00333056
395.37            -17071.9               -16676.5         0.130251         0.998573         0.00329243
390.649            -17081.2               -16690.6         0.128701         0.970682         0.00325436
385.927            -17090.4               -16704.5         0.127164         0.943929         0.00321667
381.169            -17098.9               -16717.8         0.125627         0.918886         0.00317964
376.352            -17106.9               -16730.6         0.124078         0.895411         0.0031435
371.465            -17114.2               -16742.7         0.12251         0.873723         0.00310845
366.512            -17120.9               -16754.4         0.12092         0.853631         0.00307461
361.504            -17127               -16765.5         0.119307         0.835276         0.00304208
356.469            -17132.5               -16776         0.117677         0.818372         0.00301092
351.441            -17137.7               -16786.3         0.116038         0.80266         0.00298112
346.457            -17142.5               -16796.1         0.114401         0.788232         0.00295265
341.561            -17146.8               -16805.3         0.112779         0.775009         0.00292546
336.806            -17150.8               -16814         0.111185         0.762752         0.00289945
332.252            -17154.6               -16822.3         0.109637         0.751163         0.00287454
327.966            -17157.8               -16829.8         0.108155         0.740555         0.0028506
298.102            -17161               -16862.9         0.10676         0.730119         0.00282753
271.405            -17164.5               -16893.1         0.0970384         0.709911         0.00280526
248.165            -17168.8               -16920.6         0.0883481         0.688323         0.00278205
228.471            -17174.7               -16946.2         0.0807829         0.663871         0.00275656
212.218            -17182.3               -16970.1         0.0743722         0.635815         0.00272789
199.125            -17191.6               -16992.4         0.0690815         0.604305         0.00269554
188.776            -17202.5               -17013.7         0.0648193         0.569265         0.00265939
180.671            -17214.7               -17034         0.0614505         0.531487         0.00261965
174.273            -17227.8               -17053.5         0.0588121         0.491709         0.00257677
169.057            -17241.6               -17072.5         0.0567296         0.45085         0.00253137
164.542            -17255.5               -17090.9         0.0550315         0.40993         0.00248416
160.33            -17269.3               -17109         0.053562         0.369611         0.00243587
156.115            -17282.7               -17126.6         0.0521908         0.330837         0.00238721
151.688            -17295.5               -17143.8         0.0508187         0.293929         0.0023388
146.931            -17307.6               -17160.6         0.0493777         0.259392         0.00229117
141.804            -17318.3               -17176.5         0.0478293         0.227857         0.00224473
136.328            -17328.2               -17191.9         0.0461601         0.198786         0.00219977
130.574            -17337.3               -17206.8         0.0443777         0.172151         0.00215649
124.64            -17345.4               -17220.7         0.0425047         0.148106         0.00211498
118.633            -17352.7               -17234.1         0.0405729         0.126015         0.00207526
112.663            -17359.6               -17246.9         0.0386175         0.105618         0.00203729
106.831            -17365.6               -17258.8         0.0366743         0.0868978         0.002001
101.219            -17371.3               -17270.1         0.0347758         0.0693369         0.00196629
95.8923            -17377.2               -17281.3         0.032949         0.052171         0.00193307
90.8896            -17382.5               -17291.6         0.0312149         0.0360296         0.00190124
86.2274            -17387.5               -17301.3         0.0295865         0.0206019         0.00187071
81.9019            -17392.4               -17310.5         0.0280688         0.00559502         0.00184143
77.8911            -17397.3               -17319.4         0.0266608         -0.00910146         0.00181335
74.1616            -17401.9               -17327.8         0.0253552         -0.0232845         0.00178643
70.6717            -17406.6               -17335.9         0.0241411         -0.0371549         0.00176066
70.0943            -17411.1               -17341         0.0230051         -0.0505314         0.00173603
69.4335            -17415.2               -17345.8         0.0228171         -0.0622055         0.00171217
68.6101            -17419.2               -17350.5         0.0226021         -0.0732719         0.00168927
67.568            -17422.7               -17355.1         0.022334         -0.083421         0.00166751
66.2771            -17426               -17359.8         0.0219948         -0.0927755         0.00164701
64.733            -17428.9               -17364.2         0.0215746         -0.100985         0.00162785
62.9537            -17431.4               -17368.4         0.021072         -0.108083         0.00161004
60.9774            -17433.3               -17372.4         0.0204927         -0.114036         0.00159358
58.8583            -17435.1               -17376.2         0.0198494         -0.119151         0.00157839
56.6591            -17436.3               -17379.7         0.0191596         -0.123211         0.00156436
54.4459            -17437.4               -17383         0.0184437         -0.12666         0.00155139
52.2849            -17438.4               -17386.1         0.0177233         -0.129758         0.00153933
50.2352            -17439.2               -17389         0.0170198         -0.132412         0.00152803
48.3444            -17440               -17391.7         0.0163526         -0.134903         0.00151737
46.6486            -17441.2               -17394.5         0.0157371         -0.137753         0.00150722
45.1688            -17441.8               -17396.7         0.0151851         -0.140124         0.00149746
43.91            -17442.6               -17398.7         0.0147034         -0.14271         0.00148802
42.864            -17443.8               -17400.9         0.0142936         -0.145805         0.00147885
42.0102            -17444.7               -17402.7         0.0139531         -0.148708         0.0014699
41.3186            -17445.9               -17404.6         0.0136752         -0.152024         0.00146117
40.7529            -17447.3               -17406.5         0.01345         -0.15559         0.00145266
40.274            -17448.7               -17408.4         0.0132659         -0.15924         0.00144439
39.8424            -17449.8               -17409.9         0.01311         -0.16248         0.0014364
39.4217            -17451               -17411.6         0.0129695         -0.165765         0.00142872
38.9829            -17451.9               -17412.9         0.0128326         -0.168607         0.00142138
38.5042            -17453               -17414.4         0.0126897         -0.171498         0.00141441
37.9722            -17453.7               -17415.8         0.0125339         -0.173887         0.00140783
37.3834            -17454.4               -17417         0.0123607         -0.175943         0.00140164
36.7435            -17454.9               -17418.1         0.0121691         -0.177599         0.00139584
36.065            -17455.5               -17419.4         0.0119608         -0.179206         0.0013904
35.3658            -17456               -17420.6         0.0117399         -0.180572         0.00138531
34.6668            -17456.5               -17421.8         0.0115123         -0.181783         0.00138053
33.9897            -17456.8               -17422.8         0.0112848         -0.182709         0.00137601
33.3553            -17456.9               -17423.5         0.0110644         -0.183369         0.00137172
32.7815            -17457.2               -17424.5         0.0108578         -0.184238         0.00136762
32.2816            -17457.7               -17425.4         0.0106711         -0.185229         0.00136367
31.8628            -17457.9               -17426.1         0.0105083         -0.186051         0.00135985
31.5264            -17458.3               -17426.8         0.010372         -0.187067         0.00135615
31.2679            -17458.7               -17427.4         0.0102625         -0.18814         0.00135255
31.0776            -17459.3               -17428.2         0.0101784         -0.189505         0.00134906
30.9421            -17459.6               -17428.6         0.0101164         -0.19058         0.00134568
30.8446            -17460.1               -17429.2         0.0100723         -0.191946         0.00134244
30.7673            -17460.6               -17429.8         0.0100406         -0.193305         0.00133935
30.6929            -17460.9               -17430.3         0.0100154         -0.194506         0.00133644
30.6067            -17461.3               -17430.7         0.00999118         -0.195702         0.00133374
30.4965            -17461.7               -17431.2         0.00996312         -0.196849         0.00133127
30.3539            -17462.2               -17431.8         0.00992724         -0.197988         0.00132903
30.1745            -17462.5               -17432.3         0.00988081         -0.198916         0.00132705
29.9586            -17463               -17433         0.00982242         -0.199889         0.00132533
29.7102            -17463.1               -17433.4         0.00975215         -0.20044         0.00132386
29.4352            -17463.2               -17433.7         0.0096713         -0.200851         0.00132264
29.1419            -17463.4               -17434.2         0.00958178         -0.201283         0.00132166
28.8406            -17463.5               -17434.7         0.00948631         -0.201613         0.0013209
28.5416            -17463.6               -17435         0.00938822         -0.201815         0.00132033
28.2542            -17463.7               -17435.5         0.00929088         -0.202079         0.00131994
27.9865            -17463.8               -17435.8         0.00919732         -0.202255         0.0013197
27.7451            -17463.8               -17436.1         0.0091102         -0.202363         0.0013196
27.5336            -17463.8               -17436.3         0.00903161         -0.202446         0.0013196
27.353            -17463.6               -17436.3         0.00896275         -0.202358         0.00131971
27.2025            -17463.5               -17436.3         0.00890399         -0.202356         0.0013199
27.0785            -17463.6               -17436.5         0.00885499         -0.202511         0.00132016
26.9758            -17463.6               -17436.6         0.00881461         -0.202642         0.00132048
26.888            -17463.7               -17436.8         0.00878118         -0.202928         0.00132087
26.8087            -17463.7               -17436.9         0.00875261         -0.203061         0.00132131
26.7314            -17463.7               -17436.9         0.00872679         -0.203166         0.00132181
26.6501            -17463.8               -17437.1         0.00870164         -0.203375         0.00132236
26.56            -17463.6               -17437.1         0.00867515         -0.203269         0.00132296
26.4589            -17463.7               -17437.2         0.00864584         -0.203386         0.0013236
26.3463            -17463.7               -17437.4         0.00861292         -0.203388         0.00132427
26.2243            -17463.6               -17437.4         0.00857626         -0.203225         0.00132496
26.0968            -17463.6               -17437.5         0.00853656         -0.203149         0.00132567
25.9688            -17463.5               -17437.6         0.00849505         -0.202953         0.00132637
25.8469            -17463.4               -17437.6         0.00845339         -0.202679         0.00132705
25.7381            -17463.4               -17437.6         0.00841371         -0.2025         0.0013277
25.6487            -17463.2               -17437.6         0.00837829         -0.202195         0.0013283
25.5842            -17463.1               -17437.6         0.00834918         -0.202017         0.00132884
25.549            -17463.3               -17437.8         0.0083282         -0.202141         0.00132931
25.5454            -17463.3               -17437.7         0.00831674         -0.202043         0.0013297
25.5734            -17463.2               -17437.7         0.00831555         -0.202021         0.00133002
25.6306            -17463.3               -17437.7         0.00832468         -0.202133         0.00133027
25.7125            -17463.3               -17437.6         0.00834331         -0.202226         0.00133044
25.8127            -17463.3               -17437.5         0.00836994         -0.202386         0.00133057
25.9239            -17463.4               -17437.5         0.00840257         -0.20271         0.00133065
26.0381            -17463.4               -17437.4         0.00843877         -0.202931         0.00133072
26.1469            -17463.6               -17437.4         0.00847594         -0.203315         0.00133077
26.2432            -17463.7               -17437.4         0.00851137         -0.203649         0.00133085
26.3208            -17463.8               -17437.4         0.00854269         -0.203968         0.00133095
26.3753            -17463.9               -17437.5         0.00856797         -0.204295         0.00133111
26.4041            -17464.1               -17437.7         0.00858571         -0.204671         0.00133132
26.4066            -17464.2               -17437.8         0.00859508         -0.204986         0.0013316
26.3843            -17464.2               -17437.8         0.0085959         -0.205053         0.00133195
26.34            -17464.2               -17437.9         0.00858864         -0.20515         0.00133238
26.2774            -17464.1               -17437.8         0.00857421         -0.205043         0.00133288
26.2016            -17464.2               -17438         0.00855384         -0.205115         0.00133345
26.1179            -17464.1               -17438         0.00852917         -0.205057         0.00133408
26.0317            -17464.1               -17438.1         0.00850193         -0.20497         0.00133477
25.9483            -17464.1               -17438.1         0.00847387         -0.204851         0.00133551
25.8719            -17464               -17438.1         0.0084467         -0.204732         0.00133628
25.8062            -17464               -17438.2         0.00842184         -0.204617         0.00133708
25.7537            -17464               -17438.2         0.00840046         -0.204564         0.0013379
25.7154            -17463.9               -17438.1         0.00838335         -0.204402         0.00133873
25.6918            -17463.8               -17438.1         0.00837091         -0.204265         0.00133957
25.6817            -17463.7               -17438         0.00836322         -0.204194         0.00134042
25.6832            -17463.7               -17438.1         0.00835993         -0.204245         0.00134128
25.6942            -17464               -17438.3         0.0083604         -0.204575         0.00134214
25.7124            -17464.2               -17438.5         0.00836399         -0.204776         0.00134302
25.7345            -17464.3               -17438.6         0.00836992         -0.204939         0.0013439
25.7572            -17464.3               -17438.6         0.00837712         -0.205024         0.0013448
25.7777            -17464.5               -17438.7         0.0083845         -0.205209         0.00134571
25.7939            -17464.4               -17438.6         0.00839119         -0.205242         0.00134665
25.8038            -17464.4               -17438.6         0.00839646         -0.20522         0.00134762
25.8062            -17464.3               -17438.5         0.00839968         -0.205235         0.00134861
25.8004            -17464.3               -17438.5         0.00840046         -0.205254         0.00134963
25.786            -17464.4               -17438.6         0.00839857         -0.205315         0.00135068
25.7631            -17464.3               -17438.6         0.00839387         -0.20527         0.00135175
25.7327            -17464.3               -17438.6         0.00838644         -0.205235         0.00135285
25.6956            -17464.3               -17438.6         0.00837654         -0.205218         0.00135398
25.6529            -17464.2               -17438.5         0.00836446         -0.205037         0.00135512
25.6065            -17464.2               -17438.6         0.00835057         -0.20499         0.00135627
25.5581            -17463.8               -17438.2         0.00833544         -0.204486         0.00135742
25.5094            -17463.8               -17438.3         0.00831969         -0.20438         0.00135858
25.4623            -17463.7               -17438.2         0.00830385         -0.204177         0.00135972
25.4186            -17463.6               -17438.2         0.00828851         -0.204017         0.00136085
25.3807            -17463.5               -17438.2         0.0082743         -0.203855         0.00136196
25.3509            -17463.5               -17438.2         0.00826194         -0.203718         0.00136303
25.3313            -17463.4               -17438.1         0.00825224         -0.203535         0.00136406
25.3239            -17463.4               -17438         0.00824586         -0.203414         0.00136506
25.3303            -17463.4               -17438         0.00824345         -0.203375         0.001366
25.3519            -17463.4               -17438         0.00824555         -0.203346         0.0013669
25.3888            -17463.5               -17438.1         0.00825256         -0.203461         0.00136775
25.4405            -17463.3               -17437.8         0.0082646         -0.203291         0.00136856
25.5051            -17463.5               -17438         0.00828143         -0.203557         0.00136933
25.5791            -17463.6               -17438.1         0.00830243         -0.203836         0.00137006
25.6585            -17463.8               -17438.1         0.00832654         -0.204108         0.00137078
25.7386            -17464.1               -17438.3         0.00835238         -0.20451         0.00137148
25.8143            -17464.2               -17438.4         0.00837846         -0.204767         0.00137218
25.8803            -17464.3               -17438.4         0.00840309         -0.204975         0.00137289
25.9322            -17464.3               -17438.4         0.00842458         -0.205116         0.00137362
25.9656            -17464.4               -17438.4         0.00844146         -0.205277         0.00137438
25.9774            -17464.4               -17438.4         0.00845233         -0.205342         0.00137518
25.9668            -17464.4               -17438.4         0.0084562         -0.205406         0.00137602
25.9346            -17464.2               -17438.3         0.00845273         -0.205207         0.00137691
25.8827            -17464.2               -17438.3         0.00844225         -0.205155         0.00137783
25.8143            -17464.1               -17438.3         0.00842536         -0.20504         0.00137879
25.7343            -17463.8               -17438.1         0.00840308         -0.204642         0.00137978
25.6487            -17463.4               -17437.8         0.00837706         -0.204141         0.00138078
25.5632            -17463.3               -17437.7         0.00834919         -0.203844         0.00138179
25.4835            -17463.2               -17437.7         0.00832136         -0.203633         0.0013828
25.4149            -17463               -17437.6         0.00829542         -0.203317         0.00138378
25.3612            -17463               -17437.6         0.00827307         -0.203168         0.00138473
25.3249            -17462.9               -17437.6         0.00825561         -0.203007         0.00138564
25.3066            -17462.8               -17437.5         0.00824377         -0.202852         0.00138651
25.3053            -17462.9               -17437.6         0.00823782         -0.202881         0.00138732
25.3182            -17462.9               -17437.6         0.0082374         -0.202884         0.00138808
25.3417            -17462.8               -17437.5         0.00824159         -0.202711         0.00138878
25.3714            -17462.8               -17437.4         0.00824925         -0.202689         0.00138943
25.4026            -17462.8               -17437.4         0.00825893         -0.202741         0.00139002
25.4309            -17462.8               -17437.4         0.00826906         -0.202726         0.00139056
25.4531            -17462.8               -17437.3         0.00827829         -0.202668         0.00139106
25.4667            -17462.7               -17437.2         0.0082855         -0.202586         0.00139151
25.4712            -17462.7               -17437.2         0.00828994         -0.202552         0.00139192
25.4673            -17462.7               -17437.2         0.0082914         -0.202507         0.00139227
25.4568            -17462.6               -17437.2         0.00829015         -0.202383         0.00139259
25.442            -17462.4               -17437         0.00828672         -0.202139         0.00139285
25.4262            -17462.5               -17437.1         0.00828191         -0.202185         0.00139305
25.4128            -17462.7               -17437.2         0.00827677         -0.20225         0.0013932
25.4046            -17462.6               -17437.2         0.00827238         -0.202162         0.00139329
25.404            -17462.6               -17437.2         0.00826974         -0.202139         0.00139331
25.4125            -17462.6               -17437.2         0.00826953         -0.202111         0.00139326
25.4311            -17462.6               -17437.2         0.00827229         -0.202082         0.00139315
25.4599            -17462.6               -17437.1         0.00827836         -0.202046         0.00139297
25.498            -17462.5               -17437         0.00828773         -0.201923         0.00139272
25.5449            -17462.6               -17437.1         0.00830013         -0.202111         0.00139242
25.5993            -17462.7               -17437.1         0.00831539         -0.202198         0.00139206
25.6596            -17462.7               -17437.1         0.0083331         -0.202315         0.00139166
25.725            -17462.8               -17437.1         0.00835274         -0.20246         0.00139122
25.7945            -17462.8               -17437         0.00837403         -0.202539         0.00139075
25.8675            -17462.9               -17437.1         0.00839665         -0.202804         0.00139026
25.9423            -17463.1               -17437.1         0.00842041         -0.203079         0.00138977
26.0164            -17463.1               -17437.1         0.00844477         -0.203296         0.00138928
26.0874            -17463.2               -17437.2         0.00846889         -0.203569         0.00138881
26.1523            -17463.3               -17437.1         0.008492         -0.203784         0.00138837
26.2076            -17463.3               -17437.1         0.00851312         -0.203997         0.00138798
26.2493            -17463.5               -17437.2         0.00853113         -0.204307         0.00138764
26.2735            -17463.6               -17437.4         0.00854469         -0.204612         0.00138736
26.2773            -17463.7               -17437.5         0.00855258         -0.204818         0.00138716
26.2578            -17463.7               -17437.5         0.00855382         -0.204896         0.00138703
26.2129            -17463.7               -17437.5         0.00854746         -0.204883         0.00138698
26.1423            -17463.6               -17437.4         0.00853283         -0.204785         0.001387
26.0475            -17463.4               -17437.4         0.00850985         -0.204585         0.0013871
25.9319            -17463.4               -17437.5         0.00847901         -0.204493         0.00138726
25.7999            -17463.4               -17437.6         0.00844137         -0.204264         0.00138746
25.6575            -17463.2               -17437.6         0.00839842         -0.203943         0.0013877
25.5114            -17463.1               -17437.6         0.00835205         -0.203588         0.00138794
25.3692            -17463               -17437.6         0.0083045         -0.203223         0.00138817
25.2379            -17462.8               -17437.5         0.00825819         -0.202776         0.00138837
25.1247            -17462.5               -17437.4         0.00821547         -0.202276         0.00138852
25.0353            -17462.3               -17437.3         0.00817861         -0.20185         0.0013886
24.9733            -17462.2               -17437.2         0.00814951         -0.201521         0.00138858
24.9407            -17462.1               -17437.2         0.00812931         -0.201272         0.00138847
24.8671            -17462.1               -17437.2         0.00811873         -0.201142         0.00138825
24.8227            -17462.1               -17437.3         0.00809477         -0.201085         0.0013879
24.8088            -17462.1               -17437.3         0.00808031         -0.20105         0.00138743
24.8243            -17462.2               -17437.3         0.00807577         -0.201177         0.00138683
24.8662            -17462.3               -17437.5         0.00808082         -0.201432         0.00138611
24.9303            -17462.5               -17437.6         0.00809447         -0.201702         0.00138527
25.0109            -17462.6               -17437.6         0.00811533         -0.201959         0.00138432
25.1019            -17462.8               -17437.7         0.00814157         -0.202307         0.00138327
25.197            -17462.7               -17437.5         0.00817118         -0.202369         0.00138214
25.2903            -17462.8               -17437.5         0.00820215         -0.202556         0.00138093
25.4131            -17463               -17437.6         0.00823251         -0.202909         0.00137966
25.4879            -17463               -17437.5         0.00827248         -0.203046         0.00137834
25.5487            -17463.2               -17437.7         0.00829683         -0.203363         0.00137699
25.5949            -17463.5               -17437.9         0.00831663         -0.203661         0.00137561
25.6276            -17463.5               -17437.9         0.00833166         -0.203784         0.00137421
25.649            -17463.6               -17438         0.00834231         -0.203903         0.0013728
25.6624            -17463.9               -17438.2         0.00834928         -0.204156         0.00137137
25.6727            -17463.8               -17438.2         0.00835366         -0.204129         0.00136993
25.6849            -17463.9               -17438.2         0.00835699         -0.204158         0.00136847
25.704            -17463.7               -17438         0.00836098         -0.204055         0.00136701
25.7341            -17463.8               -17438         0.0083672         -0.204114         0.00136555
25.7787            -17463.8               -17438.1         0.00837697         -0.204257         0.00136408
25.8404            -17463.9               -17438.1         0.00839151         -0.204407         0.00136262
25.9194            -17464.1               -17438.2         0.00841158         -0.204691         0.00136117
26.0143            -17464.2               -17438.2         0.0084373         -0.20497         0.00135975
26.1219            -17464.4               -17438.3         0.00846819         -0.205339         0.00135837
26.2377            -17464.6               -17438.4         0.00850323         -0.205678         0.00135704
26.355            -17464.7               -17438.3         0.00854092         -0.205915         0.00135578
26.4662            -17464.8               -17438.3         0.00857912         -0.206185         0.0013546
26.563            -17464.9               -17438.4         0.0086153         -0.206467         0.00135353
26.6376            -17465.1               -17438.5         0.0086468         -0.20677         0.00135257
26.6831            -17465.3               -17438.6         0.00867108         -0.207014         0.00135174
26.6938            -17465.3               -17438.6         0.00868591         -0.206985         0.00135104
26.666            -17465.3               -17438.6         0.00868938         -0.206948         0.00135048
26.599            -17465.2               -17438.6         0.00868032         -0.206764         0.00135004
26.495            -17465.1               -17438.6         0.00865853         -0.206491         0.00134973
26.359            -17465               -17438.6         0.00862466         -0.206138         0.00134952
26.199            -17464.8               -17438.6         0.00858041         -0.205732         0.0013494
26.0246            -17464.7               -17438.6         0.00852831         -0.205338         0.00134934
25.8474            -17464.6               -17438.7         0.00847156         -0.204989         0.00134932
25.66            -17464.5               -17438.8         0.00841388         -0.204676         0.00134932
25.5119            -17464.4               -17438.9         0.00835285         -0.204419         0.0013493
25.394            -17464.3               -17438.9         0.00830465         -0.20414         0.00134925
25.3135            -17464.2               -17438.9         0.00826627         -0.203907         0.00134916
25.2752            -17464.3               -17439         0.00824008         -0.203932         0.001349
25.2806            -17464.5               -17439.2         0.0082276         -0.204219         0.00134878
25.3282            -17464.5               -17439.2         0.00822936         -0.204307         0.00134849
25.4134            -17464.6               -17439.2         0.00824485         -0.204539         0.00134815
25.5295            -17464.7               -17439.1         0.0082726         -0.204791         0.00134776
25.6677            -17464.7               -17439.1         0.00831039         -0.205092         0.00134734
25.8182            -17464.9               -17439.1         0.00835538         -0.205469         0.00134691
25.9713            -17465               -17439         0.00840437         -0.205794         0.00134649
26.1178            -17465.1               -17439         0.00845418         -0.206101         0.0013461
26.2496            -17465.2               -17438.9         0.00850187         -0.206359         0.00134577
26.3601            -17465.2               -17438.8         0.00854479         -0.206465         0.0013455
26.4446            -17465.2               -17438.7         0.00858076         -0.20655         0.00134533
26.5007            -17465.1               -17438.6         0.00860827         -0.206554         0.00134525
26.5277            -17465.2               -17438.7         0.00862653         -0.206636         0.00134528
26.5268            -17465.2               -17438.7         0.00863531         -0.20661         0.00134542
26.5008            -17465.3               -17438.8         0.00863502         -0.20661         0.00134567
26.4536            -17465.2               -17438.7         0.00862655         -0.206405         0.00134602
26.3901            -17465.1               -17438.8         0.00861118         -0.20627         0.00134648
26.3156            -17465               -17438.7         0.00859053         -0.206019         0.00134703
26.2352            -17464.9               -17438.7         0.00856627         -0.205762         0.00134766
26.1544            -17464.8               -17438.7         0.0085401         -0.205567         0.00134835
26.078            -17464.8               -17438.7         0.00851381         -0.205441         0.00134911
26.0102            -17464.7               -17438.7         0.00848894         -0.205292         0.00134992
25.9546            -17464.7               -17438.8         0.00846686         -0.20527         0.00135076
25.9138            -17464.6               -17438.7         0.00844877         -0.205099         0.00135164
25.8892            -17464.6               -17438.7         0.00843549         -0.205075         0.00135253
25.8576            -17464.7               -17438.8         0.00842748         -0.20519         0.00135345
25.8651            -17464.7               -17438.8         0.00841718         -0.205254         0.00135439
25.8871            -17464.6               -17438.8         0.00841962         -0.20529         0.00135534
25.9208            -17464.6               -17438.7         0.00842677         -0.205356         0.00135631
25.9629            -17464.7               -17438.7         0.00843777         -0.205481         0.00135731
26.0092            -17464.7               -17438.7         0.00845146         -0.205563         0.00135835
26.0561            -17464.8               -17438.7         0.00846655         -0.205739         0.00135942
26.0998            -17464.9               -17438.8         0.00848179         -0.205947         0.00136053
26.1378            -17465               -17438.8         0.00849603         -0.206035         0.0013617
26.1683            -17465               -17438.8         0.0085084         -0.206102         0.00136293
26.1906            -17464.9               -17438.7         0.00851834         -0.206045         0.00136422
26.205            -17464.9               -17438.7         0.00852559         -0.206022         0.00136557
26.2129            -17465.1               -17438.9         0.00853028         -0.206219         0.001367
26.2166            -17465               -17438.8         0.00853286         -0.206129         0.00136849
26.2181            -17464.9               -17438.7         0.00853404         -0.206019         0.00137005
26.2189            -17464.9               -17438.6         0.00853452         -0.205959         0.00137169
26.2199            -17464.8               -17438.6         0.0085348         -0.205865         0.00137339
26.2209            -17464.8               -17438.6         0.00853511         -0.205865         0.00137517
26.2209            -17464.7               -17438.5         0.00853544         -0.205787         0.00137702
26.2179            -17464.5               -17438.3         0.00853545         -0.205596         0.00137893
26.2087            -17464.6               -17438.4         0.00853448         -0.205651         0.00138092
26.1897            -17464.6               -17438.4         0.00853149         -0.205647         0.00138297
26.1572            -17464.5               -17438.4         0.0085253         -0.20552         0.00138509
26.108            -17464.6               -17438.5         0.00851471         -0.205579         0.00138727
26.04            -17464.5               -17438.5         0.00849869         -0.205361         0.00138951
25.9526            -17464.4               -17438.5         0.00847656         -0.205145         0.00139179
25.8469            -17464.4               -17438.5         0.0084481         -0.20494         0.0013941
25.7258            -17464.3               -17438.5         0.0084137         -0.204634         0.00139642
25.5939            -17464.1               -17438.5         0.0083743         -0.204304         0.00139875
25.4568            -17463.9               -17438.5         0.00833135         -0.203912         0.00140106
25.3406            -17463.7               -17438.4         0.0082867         -0.203491         0.00140333
25.2126            -17463.5               -17438.3         0.00824889         -0.203083         0.00140555
25.0989            -17463.3               -17438.2         0.00820721         -0.202715         0.00140769
25.0051            -17463.2               -17438.2         0.00817021         -0.202494         0.00140974
24.9358            -17463               -17438         0.00813969         -0.202145         0.00141169
24.8937            -17462.9               -17438         0.00811712         -0.202064         0.00141353
24.8797            -17462.8               -17437.9         0.00810343         -0.201962         0.00141525
24.8922            -17462.8               -17437.9         0.00809885         -0.202016         0.00141685
24.928            -17462.8               -17437.9         0.00810292         -0.202085         0.00141833
24.983            -17462.7               -17437.7         0.00811458         -0.202015         0.0014197
25.0515            -17462.6               -17437.6         0.00813247         -0.202077         0.00142096
25.1272            -17462.5               -17437.4         0.00815478         -0.202098         0.00142213
25.2037            -17462.6               -17437.4         0.00817943         -0.202308         0.00142321
25.2747            -17462.8               -17437.5         0.00820434         -0.202584         0.00142422
25.3345            -17462.8               -17437.5         0.00822745         -0.202733         0.00142516
25.3783            -17462.9               -17437.5         0.00824689         -0.20285         0.00142604
25.4031            -17462.8               -17437.4         0.00826116         -0.20276         0.00142688
25.4075            -17463               -17437.6         0.00826925         -0.203033         0.00142766
25.3917            -17463               -17437.6         0.00827067         -0.20293         0.00142841
25.3576            -17463               -17437.7         0.00826553         -0.202925         0.0014291
25.3088            -17462.9               -17437.6         0.00825444         -0.202727         0.00142974
25.25            -17462.9               -17437.6         0.00823854         -0.202606         0.00143032
25.1868            -17462.7               -17437.5         0.0082194         -0.202311         0.00143084
25.1253            -17462.7               -17437.6         0.00819882         -0.2022         0.00143127
25.071            -17462.5               -17437.4         0.00817879         -0.201875         0.00143163
25.029            -17462.5               -17437.4         0.00816115         -0.201824         0.00143189
25.003            -17462.5               -17437.5         0.00814747         -0.201817         0.00143205
24.9952            -17462.4               -17437.4         0.008139         -0.201761         0.00143211
25.0063            -17462.4               -17437.4         0.00813645         -0.201725         0.00143207
25.035            -17462.4               -17437.4         0.00814006         -0.201816         0.00143193
25.1407            -17462.5               -17437.4         0.00814943         -0.202047         0.00143169
25.1941            -17462.6               -17437.4         0.00818382         -0.202215         0.00143137
25.2517            -17462.6               -17437.3         0.00820122         -0.202274         0.00143096
25.3084            -17462.6               -17437.3         0.00821997         -0.202393         0.00143049
25.3593            -17462.7               -17437.3         0.0082384         -0.202572         0.00142995
25.4003            -17462.8               -17437.4         0.00825497         -0.202742         0.00142936
25.4286            -17462.9               -17437.5         0.00826831         -0.202914         0.00142872
25.4426            -17462.9               -17437.4         0.00827754         -0.202902         0.00142803
25.442            -17462.9               -17437.4         0.00828208         -0.202907         0.0014273
25.4281            -17462.9               -17437.5         0.00828191         -0.202909         0.00142653
25.4031            -17463               -17437.6         0.00827739         -0.202927         0.00142571
25.3706            -17462.8               -17437.4         0.00826923         -0.202702         0.00142484
25.335            -17462.7               -17437.4         0.00825865         -0.202556         0.00142391
25.3004            -17462.7               -17437.4         0.00824708         -0.202498         0.00142293
25.2708            -17462.9               -17437.7         0.0082358         -0.202624         0.00142189
25.2506            -17462.9               -17437.6         0.00822618         -0.202507         0.00142078
25.2428            -17462.7               -17437.4         0.00821959         -0.202272         0.00141959
25.2496            -17462.8               -17437.5         0.00821705         -0.202357         0.00141834
25.2723            -17462.8               -17437.5         0.00821928         -0.202393         0.00141702
25.3113            -17463.2               -17437.9         0.00822665         -0.202904         0.00141562
25.366            -17463               -17437.7         0.00823935         -0.202809         0.00141417
25.4345            -17463               -17437.6         0.00825718         -0.202888         0.00141266
25.514            -17463.2               -17437.6         0.00827946         -0.203124         0.0014111
25.601            -17463.2               -17437.6         0.00830533         -0.203241         0.00140951
25.6922            -17463.3               -17437.6         0.00833366         -0.203553         0.0014079
25.7842            -17463.5               -17437.7         0.00836333         -0.203821         0.00140628
25.8741            -17463.6               -17437.7         0.0083933         -0.204094         0.00140467
25.9588            -17463.6               -17437.6         0.00842254         -0.204208         0.00140307
26.0363            -17463.6               -17437.5         0.00845013         -0.204304         0.0014015
26.1052            -17463.8               -17437.7         0.00847536         -0.204615         0.00139996
26.1192            -17463.9               -17437.8         0.00849778         -0.204797         0.00139848
26.1683            -17464               -17437.8         0.00850234         -0.205009         0.00139705
26.2086            -17464               -17437.8         0.00851834         -0.205057         0.00139568
26.2405            -17463.9               -17437.6         0.00853143         -0.204923         0.00139438
26.2651            -17463.9               -17437.7         0.00854183         -0.205031         0.00139315
26.2836            -17464.1               -17437.8         0.00854984         -0.205213         0.00139199
26.2973            -17464.2               -17437.9         0.00855587         -0.205275         0.00139091
26.3077            -17464               -17437.7         0.00856033         -0.205135         0.00138991
26.3156            -17464.2               -17437.8         0.0085637         -0.205263         0.00138898
26.3215            -17464.4               -17438.1         0.00856627         -0.205513         0.00138814
26.3251            -17464.4               -17438.1         0.0085682         -0.205517         0.00138738
26.3253            -17464.4               -17438         0.00856938         -0.20546         0.00138669
26.3204            -17464.5               -17438.2         0.00856944         -0.205626         0.00138609
26.308            -17464.6               -17438.3         0.00856783         -0.205671         0.00138557
26.2858            -17464.5               -17438.2         0.00856381         -0.205525         0.00138513
26.2511            -17464.5               -17438.2         0.00855657         -0.205435         0.00138476
26.2018            -17464.4               -17438.2         0.00854528         -0.205262         0.00138446
26.1364            -17464.3               -17438.2         0.00852924         -0.205099         0.00138422
26.0545            -17464.3               -17438.2         0.00850794         -0.204944         0.00138404
25.9579            -17464.1               -17438.2         0.00848129         -0.204657         0.00138391
25.8495            -17464.1               -17438.3         0.00844984         -0.204518         0.0013838
25.734            -17464               -17438.3         0.00841454         -0.204287         0.00138371
25.6176            -17464               -17438.3         0.00837696         -0.204031         0.00138362
25.507            -17463.9               -17438.4         0.00833906         -0.203869         0.00138351
25.4092            -17463.9               -17438.5         0.00830305         -0.203687         0.00138336
25.3308            -17463.8               -17438.4         0.00827123         -0.203455         0.00138317
25.2768            -17463.7               -17438.4         0.0082457         -0.2033         0.00138292
25.251            -17463.6               -17438.4         0.00822814         -0.20325         0.00138261
25.2551            -17463.6               -17438.4         0.00821971         -0.203282         0.00138222
25.289            -17463.7               -17438.4         0.00822105         -0.203397         0.00138177
25.387            -17463.6               -17438.2         0.00823208         -0.203416         0.00138125
25.4705            -17463.7               -17438.2         0.008264         -0.203616         0.00138068
25.5697            -17463.9               -17438.4         0.00829119         -0.204009         0.00138006
25.678            -17464               -17438.4         0.00832346         -0.204273         0.00137942
25.7889            -17464.2               -17438.4         0.00835871         -0.204582         0.00137877
25.8962            -17464.3               -17438.5         0.00839482         -0.204886         0.00137813
25.9946            -17464.4               -17438.4         0.00842976         -0.205114         0.0013775
26.0801            -17464.4               -17438.4         0.00846177         -0.205218         0.00137691
26.1507            -17464.6               -17438.5         0.00848962         -0.205472         0.00137637
26.2061            -17464.7               -17438.5         0.0085126         -0.205675         0.00137588
26.2473            -17464.9               -17438.6         0.00853062         -0.205853         0.00137545
26.2763            -17464.9               -17438.6         0.00854405         -0.205905         0.00137509
26.2958            -17465               -17438.7         0.0085535         -0.206025         0.00137481
26.3091            -17465.1               -17438.8         0.00855983         -0.206093         0.0013746
26.3198            -17465.1               -17438.8         0.00856416         -0.206149         0.00137447
26.3309            -17465               -17438.7         0.00856763         -0.206058         0.00137442
26.3449            -17465               -17438.6         0.00857124         -0.205983         0.00137445
26.363            -17464.9               -17438.6         0.0085758         -0.205962         0.00137456
26.3854            -17464.9               -17438.6         0.0085817         -0.206011         0.00137476
26.4117            -17465               -17438.6         0.00858899         -0.206071         0.00137504
26.4406            -17465               -17438.6         0.00859755         -0.206195         0.00137542
26.4704            -17465.1               -17438.6         0.00860697         -0.206272         0.00137589
26.4985            -17465.1               -17438.6         0.00861666         -0.206292         0.00137647
26.522            -17465               -17438.5         0.00862582         -0.206265         0.00137714
26.5377            -17465               -17438.5         0.00863346         -0.20631         0.00137793
26.5425            -17465               -17438.4         0.00863856         -0.206283         0.00137882
26.533            -17465               -17438.4         0.00864012         -0.206271         0.00137983
26.5065            -17465               -17438.5         0.00863704         -0.206261         0.00138094
26.4614            -17465.1               -17438.6         0.00862843         -0.206308         0.00138215
26.3964            -17464.9               -17438.5         0.00861373         -0.206016         0.00138346
26.2375            -17464.7               -17438.4         0.00859259         -0.205715         0.00138486
26.1337            -17464.6               -17438.4         0.00854084         -0.205495         0.00138633
26.0134            -17464.6               -17438.5         0.00850705         -0.205308         0.00138785
25.8792            -17464.3               -17438.4         0.0084679         -0.204833         0.00138942
25.7343            -17464               -17438.2         0.0084242         -0.204298         0.001391
25.5827            -17463.9               -17438.3         0.00837704         -0.203977         0.00139258
25.429            -17463.7               -17438.3         0.00832769         -0.203611         0.00139414
25.2787            -17463.6               -17438.3         0.00827766         -0.203253         0.00139565
25.1374            -17463.4               -17438.2         0.00822875         -0.202859         0.0013971
25.0104            -17463.3               -17438.3         0.00818274         -0.202657         0.00139847
24.9028            -17463.3               -17438.4         0.0081414         -0.202457         0.00139973
24.819            -17463.1               -17438.2         0.00810639         -0.202119         0.00140088
24.7623            -17463               -17438.3         0.00807909         -0.202047         0.00140189
24.7354            -17463               -17438.3         0.00806065         -0.202001         0.00140278
24.7399            -17462.8               -17438.1         0.00805189         -0.201837         0.00140351
24.7758            -17462.9               -17438.1         0.00805336         -0.201941         0.00140411
24.8412            -17462.9               -17438.1         0.00806503         -0.202123         0.00140458
24.9336            -17463.1               -17438.2         0.00808634         -0.202459         0.00140492
25.0493            -17463.1               -17438.1         0.00811639         -0.202669         0.00140514
25.1839            -17463.3               -17438.1         0.00815406         -0.20301         0.00140527
25.3321            -17463.3               -17438         0.00819787         -0.203288         0.00140533
25.4879            -17463.4               -17437.9         0.00824611         -0.203569         0.00140532
25.6457            -17463.5               -17437.8         0.00829686         -0.203848         0.00140528
25.8            -17463.8               -17438         0.0083482         -0.204453         0.00140523
25.9461            -17464               -17438.1         0.00839842         -0.204836         0.00140519
26.0799            -17464.3               -17438.2         0.00844599         -0.205237         0.00140518
26.198            -17464.5               -17438.3         0.00848955         -0.205602         0.00140522
26.2979            -17464.6               -17438.3         0.00852801         -0.205818         0.00140532
26.3776            -17464.6               -17438.2         0.00856052         -0.205937         0.0014055
26.4362            -17464.8               -17438.3         0.00858647         -0.20615         0.00140578
26.3954            -17464.7               -17438.3         0.00860555         -0.206073         0.00140616
26.4122            -17464.8               -17438.4         0.00859226         -0.206269         0.00140664
26.4092            -17464.9               -17438.5         0.00859771         -0.206386         0.00140722
26.387            -17464.8               -17438.4         0.00859676         -0.206223         0.0014079
26.3465            -17464.5               -17438.1         0.00858952         -0.205791         0.00140868
26.2884            -17464.3               -17438         0.00857632         -0.205565         0.00140956
26.2135            -17464.3               -17438.1         0.00855741         -0.205395         0.00141052
26.1237            -17464.3               -17438.1         0.00853305         -0.205271         0.00141155
26.0206            -17464.2               -17438.2         0.00850381         -0.205124         0.00141265
25.9065            -17464.2               -17438.3         0.00847024         -0.204995         0.00141379
25.7844            -17464.2               -17438.4         0.00843312         -0.20481         0.00141496
25.657            -17464.1               -17438.4         0.00839335         -0.204517         0.00141615
25.5277            -17464               -17438.5         0.0083519         -0.204266         0.00141733
25.4            -17463.8               -17438.4         0.00830978         -0.203916         0.00141848
25.2781            -17463.7               -17438.4         0.00826822         -0.203583         0.00141959
25.1664            -17463.4               -17438.2         0.00822856         -0.203171         0.00142064
25.069            -17463.3               -17438.3         0.00819218         -0.202964         0.00142162
24.9904            -17463.2               -17438.2         0.00816048         -0.202774         0.0014225
24.9343            -17463.1               -17438.2         0.00813488         -0.202543         0.00142329
24.9043            -17462.9               -17438         0.00811665         -0.202273         0.00142397
24.9031            -17462.8               -17437.9         0.00810686         -0.202179         0.00142454
24.9325            -17462.9               -17438         0.00810649         -0.202396         0.001425
24.9928            -17463               -17438         0.00811606         -0.202524         0.00142535
25.0828            -17463               -17438         0.00813568         -0.202723         0.00142561
25.1995            -17463.2               -17438         0.00816497         -0.203001         0.00142577
25.339            -17463.3               -17438         0.00820297         -0.203401         0.00142587
25.4957            -17463.3               -17437.8         0.00824838         -0.203549         0.00142592
25.6627            -17463.4               -17437.7         0.00829939         -0.203877         0.00142594
25.8319            -17463.5               -17437.6         0.00835374         -0.204238         0.00142596
25.995            -17463.7               -17437.7         0.00840884         -0.204685         0.001426
26.1096            -17463.9               -17437.8         0.00846191         -0.205155         0.00142607
26.2372            -17464.1               -17437.8         0.00849923         -0.20547         0.00142621
26.3374            -17464.2               -17437.8         0.00854077         -0.205709         0.00142643
26.4051            -17464.2               -17437.8         0.00857337         -0.205884         0.00142675
26.4373            -17464.3               -17437.8         0.00859542         -0.205927         0.00142716
26.4326            -17464.3               -17437.9         0.0086059         -0.206009         0.00142768
26.3921            -17464.4               -17438         0.00860437         -0.205945         0.00142832
26.3189            -17464.3               -17438         0.00859117         -0.205777         0.00142905
26.2184            -17464.2               -17437.9         0.00856736         -0.205482         0.00142987
26.0974            -17464               -17437.9         0.00853464         -0.205123         0.00143077
25.9638            -17463.8               -17437.9         0.00849525         -0.204802         0.00143173
25.8261            -17463.7               -17437.9         0.00845175         -0.204482         0.00143274
25.6923            -17463.6               -17437.9         0.00840692         -0.204163         0.00143377
25.569            -17463.6               -17438         0.00836337         -0.203978         0.0014348
25.4614            -17463.3               -17437.9         0.00832323         -0.203604         0.00143582
25.373            -17463.3               -17437.9         0.00828823         -0.203449         0.0014368
25.3044            -17463.3               -17438         0.00825943         -0.203417         0.00143775
25.2547            -17463.4               -17438.1         0.00823712         -0.203457         0.00143865
25.2211            -17463.4               -17438.2         0.00822093         -0.203412         0.00143949
25.1992            -17463.4               -17438.2         0.00821         -0.203455         0.00144027
25.1839            -17463.4               -17438.2         0.00820287         -0.203411         0.00144098
25.1706            -17463.3               -17438.1         0.00819789         -0.20329         0.00144162
25.1553            -17463.5               -17438.3         0.00819356         -0.203441         0.0014422
25.1356            -17463.5               -17438.3         0.00818858         -0.203414         0.0014427
25.1106            -17463.4               -17438.3         0.00818217         -0.203279         0.00144313
25.0812            -17463.3               -17438.2         0.00817404         -0.203094         0.00144349
25.0502            -17463.2               -17438.2         0.00816446         -0.203003         0.00144376
25.0214            -17463.3               -17438.2         0.00815436         -0.202965         0.00144394
24.9997            -17463.3               -17438.3         0.008145         -0.202989         0.00144404
24.99            -17463.3               -17438.3         0.00813793         -0.202947         0.00144404
25.0635            -17463.1               -17438         0.00813475         -0.202719         0.00144395
25.0893            -17463.1               -17438         0.00815868         -0.20269         0.00144377
25.1345            -17463.1               -17438         0.0081671         -0.202788         0.00144351
25.199            -17463.1               -17437.9         0.0081818         -0.202894         0.00144316
25.2807            -17463.2               -17437.9         0.0082028         -0.203084         0.00144275
25.3755            -17463.4               -17438         0.0082294         -0.203369         0.00144228
25.4778            -17463.5               -17438         0.00826026         -0.203668         0.00144176
25.5806            -17463.7               -17438.1         0.00829355         -0.203964         0.00144122
25.677            -17463.6               -17438         0.00832702         -0.204062         0.00144066
25.7598            -17463.8               -17438         0.00835839         -0.204356         0.0014401
25.8226            -17464               -17438.1         0.00838535         -0.204603         0.00143954
25.8605            -17464               -17438.1         0.00840579         -0.204701         0.00143901
25.871            -17463.9               -17438         0.00841813         -0.204617         0.0014385
25.8537            -17464               -17438.2         0.00842155         -0.204708         0.00143801
25.8104            -17464.1               -17438.3         0.00841591         -0.204676         0.00143755
25.7455            -17464               -17438.3         0.00840182         -0.204556         0.0014371
25.6653            -17463.9               -17438.2         0.00838068         -0.204264         0.00143665
25.5778            -17463.8               -17438.2         0.00835459         -0.203996         0.0014362
25.4915            -17463.6               -17438.1         0.00832609         -0.203738         0.00143573
25.4153            -17463.7               -17438.3         0.00829801         -0.203696         0.00143523
25.3572            -17463.5               -17438.2         0.00827322         -0.20346         0.00143468
25.3231            -17463.5               -17438.2         0.0082543         -0.203423         0.00143409
25.3173            -17463.4               -17438.1         0.00824319         -0.203268         0.00143344
25.3415            -17463.4               -17438         0.00824131         -0.203293         0.00143274
25.3945            -17463.4               -17438         0.00824919         -0.20339         0.00143198
25.4731            -17463.5               -17438         0.00826643         -0.203593         0.00143118
25.572            -17463.6               -17438         0.00829201         -0.203913         0.00143034
25.684            -17463.5               -17437.8         0.00832421         -0.203974         0.00142949
25.8012            -17463.7               -17437.9         0.00836068         -0.204349         0.00142863
25.915            -17463.8               -17437.8         0.00839881         -0.204595         0.00142779
25.9912            -17464               -17438         0.00843586         -0.204955         0.00142698
26.0752            -17464.1               -17438         0.00846069         -0.205217         0.00142621
26.1357            -17464.3               -17438.1         0.00848802         -0.205516         0.0014255
26.1687            -17464.4               -17438.2         0.0085077         -0.205638         0.00142485
26.1729            -17464.4               -17438.2         0.00851847         -0.205698         0.00142426
26.149            -17464.4               -17438.2         0.00851984         -0.205618         0.00142375
26.0995            -17464.5               -17438.4         0.00851203         -0.205627         0.0014233
26.0292            -17464.4               -17438.3         0.00849594         -0.205389         0.0014229
25.9437            -17464.4               -17438.4         0.00847304         -0.205257         0.00142256
25.8499            -17464.3               -17438.4         0.00844521         -0.204999         0.00142225
25.7552            -17464.1               -17438.3         0.00841469         -0.204641         0.00142196
25.6666            -17463.9               -17438.3         0.00838386         -0.204305         0.00142168
25.5899            -17463.8               -17438.2         0.00835501         -0.204048         0.0014214
25.53            -17463.7               -17438.2         0.00833004         -0.203854         0.00142111
25.4903            -17463.8               -17438.3         0.00831055         -0.203843         0.00142079
25.4723            -17463.8               -17438.3         0.00829764         -0.203846         0.00142045
25.4756            -17464               -17438.5         0.00829175         -0.204096         0.00142008
25.4981            -17464.1               -17438.6         0.00829283         -0.20426         0.00141968
25.5353            -17464.2               -17438.7         0.00830015         -0.204447         0.00141926
25.5816            -17464.2               -17438.6         0.00831226         -0.204482         0.00141882
25.6306            -17464.2               -17438.6         0.00832735         -0.204577         0.00141836
25.6759            -17464.2               -17438.5         0.0083433         -0.204661         0.00141789
25.7112            -17464.3               -17438.6         0.00835803         -0.20486         0.00141743
25.7314            -17464.1               -17438.4         0.00836952         -0.204683         0.00141697
25.7326            -17464.1               -17438.4         0.0083761         -0.204706         0.00141651
25.7128            -17464.1               -17438.3         0.0083765         -0.204632         0.00141606
25.6721            -17464               -17438.3         0.00837006         -0.204497         0.00141562
25.6126            -17464               -17438.3         0.00835681         -0.204409         0.00141517
25.5383            -17463.9               -17438.4         0.00833743         -0.204279         0.00141472
25.4554            -17463.8               -17438.3         0.00831326         -0.204018         0.00141424
25.3908            -17463.7               -17438.3         0.00828625         -0.203827         0.00141373
25.3125            -17463.7               -17438.4         0.00826524         -0.203668         0.00141317
25.2483            -17463.6               -17438.3         0.00823975         -0.203453         0.00141256
25.2057            -17463.6               -17438.4         0.00821886         -0.203392         0.00141189
25.1907            -17463.6               -17438.4         0.00820497         -0.203396         0.00141114
25.2079            -17463.7               -17438.5         0.0082001         -0.203528         0.00141032
25.2596            -17463.9               -17438.6         0.00820571         -0.203732         0.00140944
25.3458            -17464               -17438.6         0.00822254         -0.203986         0.00140848
25.4637            -17464.2               -17438.7         0.00825059         -0.204364         0.00140748
25.6081            -17464.4               -17438.7         0.00828898         -0.204704         0.00140645
25.7716            -17464.6               -17438.8         0.00833596         -0.20513         0.00140539
25.9457            -17464.7               -17438.8         0.0083892         -0.205536         0.00140435
26.1206            -17464.9               -17438.7         0.00844587         -0.205897         0.00140334
26.287            -17465               -17438.7         0.00850281         -0.206238         0.00140239
26.4364            -17465.4               -17438.9         0.00855696         -0.206834         0.00140153
26.562            -17465.4               -17438.9         0.0086056         -0.207075         0.00140076
26.6584            -17465.4               -17438.8         0.00864648         -0.207198         0.00140012
26.7224            -17465.5               -17438.8         0.00867786         -0.20734         0.0013996
26.7533            -17465.5               -17438.7         0.0086987         -0.207352         0.00139924
26.7525            -17465.6               -17438.8         0.00870875         -0.207438         0.00139901
26.7232            -17465.6               -17438.8         0.0087085         -0.207361         0.00139894
26.6696            -17465.5               -17438.9         0.00869894         -0.207271         0.001399
26.597            -17465.5               -17438.9         0.0086815         -0.20709         0.00139921
26.5112            -17465.5               -17439         0.00865788         -0.207023         0.00139953
26.418            -17465.4               -17439         0.00862996         -0.206794         0.00139997
26.3223            -17465.4               -17439.1         0.00859961         -0.206662         0.00140051
26.2286            -17465.2               -17439         0.00856847         -0.206336         0.00140113
26.1401            -17465.2               -17439         0.00853796         -0.206133         0.00140183
26.0592            -17464.9               -17438.9         0.00850915         -0.205803         0.00140258
25.9874            -17464.9               -17438.9         0.00848282         -0.205687         0.00140339
25.8929            -17464.9               -17439         0.00845945         -0.205589         0.00140424
25.8432            -17464.9               -17439.1         0.00842868         -0.205589         0.00140511
25.8059            -17464.9               -17439.1         0.00841251         -0.205464         0.00140601
25.7818            -17464.8               -17439         0.00840037         -0.205359         0.00140693
25.7713            -17464.7               -17438.9         0.00839251         -0.205243         0.00140785
25.7747            -17464.6               -17438.8         0.0083891         -0.205113         0.00140879
25.792            -17464.6               -17438.8         0.0083902         -0.205159         0.00140974
25.8227            -17464.6               -17438.7         0.00839582         -0.205195         0.0014107
25.8664            -17464.6               -17438.8         0.00840584         -0.20535         0.00141168
25.9219            -17464.7               -17438.8         0.00842005         -0.205534         0.00141269
25.9876            -17464.8               -17438.9         0.00843812         -0.205754         0.00141373
26.0608            -17464.9               -17438.8         0.0084595         -0.205892         0.00141481
26.1383            -17464.8               -17438.7         0.00848334         -0.205939         0.00141594
26.2163            -17464.9               -17438.7         0.00850856         -0.206138         0.00141713
26.2909            -17465.1               -17438.8         0.00853395         -0.206475         0.0014184
26.358            -17465.2               -17438.9         0.00855823         -0.206694         0.00141975
26.4138            -17465.4               -17439         0.00858009         -0.206991         0.00142119
26.4546            -17465.4               -17438.9         0.00859824         -0.206998         0.00142274
26.477            -17465.4               -17438.9         0.00861151         -0.207113         0.0014244
26.4788            -17465.4               -17438.9         0.00861881         -0.207079         0.00142617
26.4579            -17465.4               -17439         0.00861939         -0.207087         0.00142805
26.4127            -17465.3               -17438.9         0.00861258         -0.206887         0.00143004
26.343            -17465.1               -17438.7         0.00859789         -0.206572         0.00143213
26.2489            -17464.8               -17438.6         0.00857519         -0.206204         0.00143432
26.1316            -17464.6               -17438.5         0.00854457         -0.205827         0.00143658
25.9928            -17464.3               -17438.4         0.00850637         -0.205337         0.00143891
25.8357            -17464.2               -17438.4         0.0084612         -0.205001         0.00144128
25.6645            -17463.9               -17438.2         0.00841007         -0.204385         0.00144367
25.4838            -17463.6               -17438.1         0.00835432         -0.203845         0.00144606
25.2994            -17463.3               -17438         0.00829551         -0.203254         0.00144842
25.1533            -17463.1               -17438         0.00823547         -0.202802         0.00145072
24.9817            -17463               -17438         0.00818792         -0.202416         0.00145295
24.8271            -17462.9               -17438         0.00813206         -0.202089         0.00145508
24.697            -17462.7               -17438         0.00808175         -0.201728         0.00145709
24.5979            -17462.6               -17438         0.00803938         -0.201536         0.00145896
24.5356            -17462.5               -17438         0.00800714         -0.201346         0.00146067
24.5139            -17462.6               -17438         0.00798684         -0.201345         0.00146222
24.5348            -17462.5               -17438         0.00797978         -0.201368         0.0014636
24.5978            -17462.5               -17437.9         0.00798658         -0.201482         0.00146482
24.7            -17462.7               -17438         0.0080071         -0.201796         0.00146588
24.8358            -17462.8               -17438         0.00804037         -0.202147         0.0014668
24.9971            -17463               -17438         0.00808457         -0.202613         0.0014676
25.1738            -17463.2               -17438         0.00813708         -0.203067         0.0014683
25.3545            -17463.3               -17438         0.00819459         -0.203431         0.00146893
25.5272            -17463.6               -17438         0.00825342         -0.203958         0.0014695
25.6802            -17463.8               -17438.1         0.00830963         -0.204404         0.00147006
25.8033            -17464               -17438.2         0.00835943         -0.204808         0.00147061
25.8884            -17464               -17438.2         0.00839952         -0.204956         0.00147118
25.93            -17464.1               -17438.1         0.0084272         -0.205045         0.00147177
25.9262            -17464               -17438.1         0.00844075         -0.20493         0.0014724
25.8784            -17463.9               -17438.1         0.00843952         -0.204797         0.00147305
25.7919            -17463.7               -17437.9         0.00842397         -0.204411         0.00147373
25.6744            -17463.5               -17437.9         0.00839579         -0.204066         0.00147443
25.5363            -17463.2               -17437.6         0.00835754         -0.203456         0.00147512
25.3889            -17463               -17437.6         0.00831259         -0.203053         0.00147578
25.2438            -17463               -17437.7         0.00826463         -0.202835         0.0014764
25.1119            -17462.8               -17437.7         0.00821738         -0.202456         0.00147696
25.0027            -17462.6               -17437.6         0.00817445         -0.202141         0.00147743
24.9235            -17462.6               -17437.7         0.0081389         -0.202006         0.0014778
24.8795            -17462.6               -17437.7         0.00811312         -0.201956         0.00147807
24.9507            -17462.6               -17437.6         0.0080988         -0.201894         0.00147822
24.9805            -17462.6               -17437.6         0.00812196         -0.201961         0.00147825
25.0428            -17462.8               -17437.7         0.00813167         -0.20225         0.00147818
25.1331            -17462.8               -17437.7         0.00815195         -0.202469         0.00147801
25.2454            -17463               -17437.8         0.00818133         -0.202812         0.00147776
25.3727            -17463.2               -17437.9         0.00821789         -0.203229         0.00147744
25.5083            -17463.4               -17437.9         0.00825935         -0.203621         0.00147707
25.6454            -17463.7               -17438.1         0.0083035         -0.204155         0.00147667
25.7774            -17463.8               -17438         0.00834812         -0.204372         0.00147626
25.8992            -17463.9               -17438         0.00839109         -0.204606         0.00147585
26.0064            -17464               -17437.9         0.00843072         -0.204846         0.00147547
26.096            -17464.1               -17438         0.00846563         -0.205144         0.00147513
26.1662            -17464.2               -17438         0.0084948         -0.205283         0.00147484
26.216            -17464.3               -17438.1         0.00851765         -0.205455         0.00147461
26.2451            -17464.4               -17438.1         0.00853385         -0.205554         0.00147444
26.254            -17464.4               -17438.2         0.00854334         -0.205577         0.00147435
26.2429            -17464.5               -17438.3         0.00854622         -0.20563         0.00147433
26.2119            -17464.5               -17438.3         0.0085426         -0.205536         0.00147438
26.1615            -17464.4               -17438.3         0.00853252         -0.205399         0.00147449
26.0922            -17464.3               -17438.2         0.00851611         -0.205117         0.00147466
26.0046            -17464.3               -17438.3         0.00849354         -0.205         0.00147489
25.8996            -17464.1               -17438.2         0.00846502         -0.2047         0.00147515
25.7788            -17463.8               -17438         0.00843085         -0.204179         0.00147543
25.6443            -17463.7               -17438         0.00839153         -0.203861         0.00147572
25.4987            -17463.4               -17437.9         0.00834776         -0.203425         0.00147599
25.345            -17463.3               -17437.9         0.00830035         -0.203064         0.00147623
25.1876            -17463.2               -17438         0.00825034         -0.202752         0.00147641
25.0316            -17463.1               -17438         0.0081991         -0.202445         0.00147651
24.8823            -17462.8               -17437.9         0.0081483         -0.202005         0.00147651
24.7449            -17462.7               -17438         0.00809972         -0.201724         0.00147639
24.7151            -17462.5               -17437.8         0.00805498         -0.201357         0.00147613
24.6153            -17462.5               -17437.9         0.00804527         -0.201225         0.00147571
24.5397            -17462.5               -17437.9         0.00801279         -0.201043         0.00147513
24.492            -17462.3               -17437.8         0.00798817         -0.200853         0.00147436
24.4752            -17462.4               -17437.9         0.00797266         -0.200846         0.00147341
24.4906            -17462.3               -17437.8         0.0079672         -0.200788         0.00147228
24.5377            -17462.1               -17437.6         0.00797219         -0.200711         0.00147096
24.6152            -17462.1               -17437.5         0.00798754         -0.200813         0.00146947
24.7205            -17462.4               -17437.7         0.00801277         -0.201274         0.00146781
24.8498            -17462.6               -17437.7         0.00804704         -0.201587         0.001466
